#1/cm,e1,e2
,,
6712.99,-2.0004,5.9676
6666.71,-2.065,6.0463
6624.28,-2.1249,6.1198
6579.93,-2.1884,6.1981
6537.5,-2.2499,6.2742
6495.08,-2.3121,6.3517
6452.65,-2.3751,6.4307
6412.15,-2.436,6.5073
6369.73,-2.5006,6.589
6329.23,-2.563,6.6684
6290.66,-2.6231,6.7453
6250.16,-2.6871,6.8274
6211.59,-2.7487,6.9069
6173.02,-2.811,6.9879
6136.38,-2.8709,7.066
6097.81,-2.9347,7.1496
6061.17,-2.996,7.2304
6024.53,-3.058,7.3125
5989.82,-3.1174,7.3915
5953.18,-3.1808,7.4763
5918.47,-3.2416,7.5579
5883.75,-3.303,7.6409
5849.04,-3.3651,7.7251
5814.33,-3.4279,7.8107
5781.54,-3.4878,7.8929
5748.76,-3.5484,7.9763
5715.98,-3.6096,8.0609
5683.19,-3.6714,8.147
5650.41,-3.734,8.2343
5619.55,-3.7934,8.3178
5586.77,-3.8572,8.4078
5555.91,-3.9179,8.4939
5525.06,-3.9792,8.5812
5496.13,-4.0372,8.6643
5465.28,-4.0997,8.7542
5436.35,-4.1589,8.8397
5405.49,-4.2227,8.9323
5376.57,-4.283,9.0204
5347.64,-4.344,9.1097
5320.64,-4.4014,9.1943
5291.71,-4.4635,9.2862
5264.71,-4.5219,9.3732
5235.79,-4.5852,9.4677
5208.79,-4.6447,9.5572
5181.79,-4.7049,9.648
5154.79,-4.7655,9.74
5129.72,-4.8224,9.8265
5102.72,-4.8841,9.921
5077.65,-4.9419,10.01
5050.65,-5.0048,10.107
5025.58,-5.0636,10.198
5000.52,-5.1229,10.291
4975.44,-5.1828,10.385
4952.3,-5.2385,10.473
4927.23,-5.2993,10.569
4902.16,-5.3607,10.666
4879.02,-5.4178,10.758
4855.88,-5.4753,10.85
4832.74,-5.5333,10.943
4809.6,-5.5918,11.038
4786.46,-5.6507,11.134
4763.31,-5.7101,11.231
4740.17,-5.77,11.329
4717.03,-5.8303,11.429
4695.82,-5.886,11.521
4674.6,-5.9422,11.615
4651.46,-6.0038,11.718
4630.25,-6.0608,11.814
4609.04,-6.1182,11.911
4587.82,-6.176,12.009
4566.61,-6.2343,12.108
4547.33,-6.2876,12.2
4526.11,-6.3466,12.301
4504.9,-6.4061,12.404
4485.61,-6.4606,12.498
4464.4,-6.5208,12.604
4445.12,-6.576,12.7
4425.83,-6.6316,12.798
4406.55,-6.6876,12.897
4387.26,-6.7439,12.997
4367.98,-6.8005,13.098
4348.69,-6.8576,13.201
4329.41,-6.915,13.304
4312.05,-6.9671,13.398
4292.77,-7.0252,13.504
4275.41,-7.0779,13.6
4256.13,-7.1368,13.708
4238.77,-7.1902,13.806
4219.49,-7.2498,13.916
4202.13,-7.3038,14.017
4184.77,-7.3582,14.118
4167.42,-7.4128,14.221
4150.06,-7.4678,14.324
4132.7,-7.5232,14.429
4115.35,-7.5788,14.534
4099.92,-7.6286,14.629
4082.56,-7.6849,14.737
4065.21,-7.7415,14.846
4049.78,-7.7921,14.944
4032.42,-7.8494,15.055
4017,-7.9006,15.155
4001.57,-7.952,15.255
3984.21,-8.0103,15.37
3968.79,-8.0623,15.473
3953.36,-8.1147,15.576
3937.93,-8.1673,15.681
3922.5,-8.2202,15.787
3907.07,-8.2734,15.894
3891.65,-8.3268,16.001
3876.22,-8.3806,16.11
3862.72,-8.4279,16.206
3847.29,-8.4822,16.317
3831.86,-8.5368,16.429
3818.36,-8.5848,16.528
3802.94,-8.6399,16.642
3789.44,-8.6884,16.742
3774.01,-8.7441,16.858
3760.51,-8.7931,16.961
3747.01,-8.8423,17.064
3731.58,-8.8989,17.183
3718.08,-8.9486,17.288
3704.59,-8.9985,17.394
3691.09,-9.0487,17.502
3677.59,-9.0992,17.61
3664.09,-9.1499,17.719
3650.59,-9.2008,17.828
3637.09,-9.252,17.939
3623.59,-9.3034,18.051
3612.02,-9.3476,18.148
3598.52,-9.3995,18.261
3585.02,-9.4517,18.376
3571.52,-9.504,18.492
3559.95,-9.5491,18.592
3546.45,-9.602,18.709
3534.88,-9.6475,18.811
3521.38,-9.7008,18.93
3509.81,-9.7467,19.034
3498.24,-9.7928,19.138
3484.74,-9.8469,19.26
3473.17,-9.8934,19.366
3461.6,-9.9401,19.473
3450.03,-9.9871,19.58
3436.53,-10.042,19.707
3424.96,-10.089,19.816
3413.39,-10.137,19.926
3401.82,-10.185,20.037
3390.25,-10.233,20.149
3378.67,-10.281,20.262
3367.1,-10.329,20.376
3357.46,-10.37,20.471
3345.89,-10.419,20.586
3334.32,-10.468,20.702
3322.75,-10.517,20.819
3313.11,-10.558,20.918
3301.54,-10.608,21.037
3289.96,-10.657,21.156
3280.32,-10.699,21.257
3268.75,-10.749,21.378
3259.11,-10.791,21.48
3247.54,-10.842,21.604
3237.9,-10.884,21.707
3226.33,-10.935,21.832
3216.68,-10.978,21.937
3207.04,-11.021,22.043
3195.47,-11.073,22.171
3185.83,-11.116,22.278
3176.19,-11.159,22.386
3164.61,-11.212,22.517
3154.97,-11.256,22.627
3145.33,-11.299,22.737
3135.69,-11.344,22.848
3126.05,-11.388,22.96
3116.4,-11.432,23.073
3106.76,-11.477,23.187
3097.12,-11.522,23.301
3087.48,-11.567,23.416
3077.83,-11.612,23.532
3068.19,-11.657,23.649
3058.55,-11.703,23.766
3048.91,-11.749,23.884
3041.19,-11.785,23.98
3031.55,-11.831,24.1
3021.91,-11.878,24.22
3012.27,-11.924,24.342
3004.55,-11.961,24.44
2994.91,-12.008,24.563
2985.27,-12.055,24.686
2977.55,-12.093,24.786
2967.91,-12.14,24.912
2960.2,-12.178,25.013
2950.55,-12.226,25.14
2942.84,-12.264,25.242
2933.2,-12.312,25.371
2925.48,-12.351,25.475
2915.84,-12.4,25.605
2908.13,-12.438,25.71
2900.41,-12.477,25.816
2890.77,-12.526,25.949
2883.06,-12.566,26.056
2875.34,-12.605,26.164
2865.7,-12.655,26.299
2857.99,-12.695,26.408
2850.27,-12.735,26.518
2842.56,-12.775,26.628
2832.92,-12.825,26.767
2825.2,-12.866,26.879
2817.49,-12.906,26.992
2809.78,-12.947,27.105
2802.06,-12.988,27.219
2794.35,-13.029,27.333
2786.64,-13.07,27.448
2778.92,-13.111,27.564
2771.21,-13.153,27.681
2763.49,-13.195,27.798
2755.78,-13.236,27.916
2748.07,-13.278,28.035
2740.35,-13.32,28.155
2732.64,-13.363,28.275
2724.92,-13.405,28.396
2719.14,-13.437,28.487
2711.42,-13.48,28.609
2703.71,-13.523,28.732
2696,-13.566,28.856
2688.28,-13.609,28.98
2682.5,-13.642,29.074
2674.78,-13.685,29.2
2667.07,-13.729,29.327
2661.28,-13.762,29.422
2653.57,-13.806,29.55
2645.86,-13.85,29.679
2640.07,-13.884,29.776
2632.36,-13.928,29.907
2626.57,-13.962,30.005
2618.86,-14.007,30.137
2611.14,-14.052,30.269
2605.36,-14.086,30.369
2597.65,-14.131,30.503
2591.86,-14.165,30.604
2584.15,-14.211,30.74
2578.36,-14.246,30.842
2572.58,-14.28,30.945
2564.86,-14.326,31.082
2559.08,-14.361,31.186
2551.36,-14.408,31.326
2545.58,-14.443,31.431
2539.79,-14.478,31.536
2532.08,-14.525,31.678
2526.29,-14.561,31.785
2520.51,-14.596,31.892
2512.79,-14.644,32.036
2507.01,-14.68,32.144
2501.22,-14.716,32.254
2495.44,-14.752,32.363
2487.72,-14.8,32.51
2481.94,-14.837,32.621
2476.15,-14.873,32.733
2470.37,-14.91,32.845
2464.58,-14.947,32.957
2458.8,-14.983,33.071
2451.08,-15.033,33.222
2445.3,-15.07,33.337
2439.51,-15.107,33.452
2433.73,-15.145,33.568
2427.94,-15.182,33.684
2422.15,-15.22,33.801
2416.37,-15.258,33.918
2410.58,-15.296,34.037
2404.8,-15.334,34.155
2399.01,-15.372,34.275
2393.23,-15.411,34.395
2387.44,-15.449,34.515
2381.66,-15.488,34.636
2375.87,-15.527,34.758
2370.09,-15.566,34.881
2364.3,-15.605,35.004
2358.52,-15.644,35.128
2354.66,-15.671,35.211
2348.87,-15.71,35.336
2343.09,-15.75,35.461
2337.3,-15.789,35.587
2331.52,-15.829,35.714
2325.73,-15.87,35.842
2321.87,-15.896,35.927
2316.09,-15.937,36.056
2310.3,-15.977,36.185
2304.52,-16.018,36.315
2300.66,-16.045,36.403
2294.88,-16.086,36.534
2289.09,-16.127,36.666
2283.31,-16.168,36.799
2279.45,-16.196,36.887
2273.66,-16.237,37.022
2267.88,-16.279,37.156
2264.02,-16.306,37.246
2258.24,-16.348,37.382
2252.45,-16.39,37.519
2248.59,-16.418,37.611
2242.81,-16.461,37.749
2238.95,-16.489,37.841
2233.17,-16.531,37.98
2227.38,-16.574,38.12
2223.52,-16.603,38.214
2217.74,-16.646,38.356
2213.88,-16.674,38.45
2208.09,-16.718,38.593
2204.24,-16.746,38.689
2198.45,-16.79,38.833
2194.6,-16.819,38.929
2188.81,-16.863,39.075
2184.95,-16.892,39.172
2179.17,-16.936,39.319
2175.31,-16.965,39.417
2169.53,-17.009,39.565
2165.67,-17.039,39.665
2159.88,-17.083,39.814
2156.03,-17.113,39.914
2152.17,-17.142,40.015
2146.38,-17.187,40.167
2142.53,-17.217,40.268
2138.67,-17.247,40.37
2132.88,-17.292,40.524
2129.03,-17.323,40.626
2123.24,-17.368,40.781
2119.39,-17.398,40.885
2115.53,-17.429,40.989
2109.74,-17.475,41.146
2105.89,-17.506,41.251
2102.03,-17.536,41.357
2098.17,-17.567,41.463
2092.39,-17.614,41.622
2088.53,-17.645,41.729
2084.67,-17.676,41.837
2080.82,-17.707,41.944
2075.03,-17.754,42.107
2071.17,-17.786,42.216
2067.32,-17.818,42.325
2063.46,-17.849,42.435
2057.67,-17.897,42.6
2053.82,-17.929,42.711
2049.96,-17.961,42.822
2046.1,-17.993,42.934
2042.25,-18.025,43.046
2038.39,-18.058,43.158
2032.6,-18.107,43.328
2028.75,-18.139,43.441
2024.89,-18.172,43.556
2021.03,-18.205,43.67
2017.18,-18.238,43.785
2013.32,-18.271,43.901
2009.46,-18.304,44.017
2005.61,-18.337,44.133
2001.75,-18.37,44.25
1997.89,-18.404,44.367
1992.11,-18.454,44.544
1988.25,-18.488,44.662
1984.39,-18.522,44.782
1980.54,-18.556,44.901
1976.68,-18.59,45.021
1972.82,-18.624,45.142
1968.97,-18.658,45.262
1965.11,-18.693,45.384
1961.25,-18.727,45.506
1957.39,-18.762,45.629
1953.54,-18.797,45.751
1949.68,-18.832,45.875
1945.82,-18.867,45.999
1941.97,-18.902,46.123
1938.11,-18.937,46.249
1934.25,-18.972,46.374
1932.32,-18.99,46.437
1928.47,-19.026,46.563
1924.61,-19.061,46.691
1920.75,-19.097,46.818
1916.9,-19.133,46.946
1913.04,-19.169,47.075
1909.18,-19.206,47.204
1905.33,-19.242,47.333
1901.47,-19.278,47.464
1897.61,-19.315,47.594
1895.68,-19.333,47.66
1891.83,-19.37,47.792
1887.97,-19.407,47.924
1884.11,-19.444,48.057
1880.26,-19.481,48.19
1876.4,-19.519,48.324
1874.47,-19.537,48.391
1870.61,-19.575,48.526
1866.76,-19.613,48.661
1862.9,-19.65,48.797
1859.04,-19.688,48.934
1857.11,-19.707,49.003
1853.26,-19.746,49.14
1849.4,-19.784,49.278
1845.54,-19.822,49.417
1841.69,-19.861,49.556
1839.76,-19.88,49.626
1835.9,-19.919,49.767
1832.04,-19.958,49.908
1828.19,-19.997,50.049
1826.26,-20.017,50.12
1822.4,-20.056,50.263
1818.54,-20.096,50.407
1816.62,-20.115,50.478
1812.76,-20.155,50.622
1808.9,-20.195,50.767
1806.97,-20.215,50.84
1803.12,-20.255,50.986
1799.26,-20.295,51.132
1795.4,-20.336,51.28
1793.47,-20.356,51.354
1789.62,-20.397,51.502
1785.76,-20.438,51.651
1783.83,-20.458,51.726
1779.98,-20.499,51.875
1778.05,-20.52,51.951
1774.19,-20.561,52.102
1770.33,-20.602,52.254
1768.4,-20.623,52.33
1764.55,-20.665,52.482
1760.69,-20.707,52.636
1758.76,-20.728,52.713
1754.91,-20.77,52.868
1752.98,-20.791,52.945
1749.12,-20.833,53.101
1745.26,-20.876,53.258
1743.33,-20.897,53.336
1739.48,-20.94,53.494
1737.55,-20.961,53.573
1733.69,-21.005,53.732
1731.76,-21.026,53.811
1727.91,-21.069,53.971
1725.98,-21.091,54.051
1722.12,-21.135,54.213
1718.26,-21.178,54.375
1716.34,-21.2,54.456
1712.48,-21.244,54.619
1710.55,-21.266,54.701
1706.69,-21.311,54.865
1704.77,-21.333,54.947
1700.91,-21.377,55.113
1698.98,-21.4,55.196
1695.12,-21.445,55.363
1693.19,-21.467,55.446
1689.34,-21.512,55.614
1687.41,-21.535,55.698
1683.55,-21.58,55.868
1681.62,-21.603,55.953
1679.7,-21.626,56.038
1675.84,-21.672,56.209
1673.91,-21.694,56.295
1670.05,-21.741,56.467
1668.12,-21.764,56.553
1664.27,-21.81,56.727
1662.34,-21.833,56.814
1658.48,-21.88,56.989
1656.55,-21.903,57.077
1654.63,-21.927,57.164
1650.77,-21.974,57.341
1648.84,-21.997,57.43
1644.98,-22.044,57.608
1643.05,-22.068,57.697
1641.13,-22.092,57.786
1637.27,-22.14,57.966
1635.34,-22.164,58.057
1631.48,-22.212,58.238
1629.55,-22.236,58.329
1627.63,-22.26,58.42
1623.77,-22.308,58.603
1621.84,-22.332,58.695
1619.91,-22.357,58.788
1616.06,-22.405,58.972
1614.13,-22.43,59.065
1612.2,-22.454,59.158
1608.34,-22.504,59.346
1606.41,-22.528,59.44
1604.48,-22.553,59.534
1600.63,-22.603,59.722
1598.7,-22.628,59.817
1596.77,-22.653,59.913
1592.91,-22.703,60.104
1590.99,-22.728,60.199
1589.06,-22.753,60.295
1585.2,-22.803,60.489
1583.27,-22.829,60.586
1581.34,-22.854,60.683
1577.49,-22.905,60.878
1575.56,-22.93,60.976
1573.63,-22.956,61.074
1571.7,-22.982,61.173
1567.84,-23.033,61.371
1565.92,-23.059,61.469
1563.99,-23.085,61.569
1560.13,-23.137,61.769
1558.2,-23.163,61.87
1556.27,-23.189,61.97
1554.34,-23.215,62.071
1550.49,-23.267,62.274
1548.56,-23.294,62.375
1546.63,-23.32,62.478
1544.7,-23.346,62.58
1540.85,-23.399,62.785
1538.92,-23.426,62.888
1536.99,-23.453,62.992
1535.06,-23.479,63.096
1533.13,-23.506,63.2
1529.27,-23.56,63.409
1527.35,-23.587,63.513
1525.42,-23.614,63.619
1523.49,-23.641,63.724
1521.56,-23.668,63.83
1517.7,-23.722,64.043
1515.78,-23.749,64.149
1513.85,-23.777,64.256
1511.92,-23.804,64.363
1509.99,-23.832,64.471
1506.13,-23.887,64.687
1504.2,-23.914,64.796
1502.28,-23.942,64.904
1500.35,-23.97,65.013
1498.42,-23.998,65.123
1496.49,-24.025,65.233
1492.63,-24.081,65.453
1490.71,-24.109,65.563
1488.78,-24.137,65.675
1486.85,-24.166,65.786
1484.92,-24.194,65.898
1482.99,-24.222,66.01
1481.06,-24.251,66.122
1477.21,-24.307,66.347
1475.28,-24.336,66.461
1473.35,-24.365,66.574
1471.42,-24.393,66.688
1469.49,-24.422,66.803
1467.56,-24.451,66.917
1465.64,-24.479,67.032
1463.71,-24.508,67.147
1461.78,-24.537,67.263
1457.92,-24.596,67.495
1455.99,-24.625,67.612
1454.06,-24.654,67.729
1452.14,-24.683,67.845
1450.21,-24.713,67.963
1448.28,-24.742,68.081
1446.35,-24.771,68.2
1444.42,-24.801,68.318
1442.49,-24.831,68.438
1440.57,-24.86,68.556
1438.64,-24.89,68.676
1434.78,-24.95,68.917
1432.85,-24.98,69.038
1430.92,-25.01,69.159
1428.99,-25.04,69.281
1427.07,-25.07,69.402
1425.14,-25.1,69.524
1423.21,-25.13,69.647
1421.28,-25.16,69.77
1419.35,-25.191,69.894
1417.42,-25.221,70.017
1415.5,-25.252,70.141
1413.57,-25.282,70.266
1411.64,-25.313,70.391
1409.71,-25.344,70.516
1407.78,-25.375,70.642
1405.85,-25.405,70.768
1403.92,-25.436,70.894
1402,-25.467,71.02
1400.07,-25.498,71.148
1398.14,-25.529,71.275
1396.21,-25.561,71.403
1394.28,-25.592,71.532
1392.35,-25.623,71.661
1390.43,-25.654,71.789
1388.5,-25.686,71.919
1386.57,-25.717,72.049
1384.64,-25.749,72.179
1382.71,-25.781,72.31
1380.78,-25.812,72.441
1378.85,-25.844,72.573
1376.93,-25.876,72.704
1375,-25.908,72.837
1373.07,-25.94,72.969
1371.14,-25.972,73.103
1369.21,-26.004,73.236
1367.28,-26.036,73.37
1365.35,-26.069,73.505
1363.43,-26.101,73.639
1361.5,-26.133,73.775
1359.57,-26.166,73.91
1357.64,-26.198,74.047
1355.71,-26.231,74.183
1353.78,-26.264,74.32
1351.86,-26.296,74.457
1349.93,-26.329,74.595
1348,-26.362,74.733
1346.07,-26.395,74.872
1344.14,-26.428,75.011
1342.21,-26.461,75.151
1340.28,-26.495,75.291
1338.36,-26.528,75.431
1336.43,-26.561,75.572
1334.5,-26.595,75.714
1332.57,-26.628,75.856
1330.64,-26.662,75.998
1328.71,-26.695,76.141
1326.79,-26.729,76.283
1324.86,-26.763,76.427
1322.93,-26.797,76.571
1321,-26.83,76.716
1319.07,-26.864,76.861
1317.14,-26.899,77.007
1315.21,-26.933,77.153
1313.29,-26.967,77.299
1311.36,-27.001,77.446
1309.43,-27.035,77.593
1307.5,-27.07,77.742
1305.57,-27.104,77.89
1303.64,-27.139,78.039
1301.72,-27.173,78.188
1299.79,-27.208,78.338
1297.86,-27.243,78.488
1295.93,-27.278,78.639
1294,-27.313,78.791
1292.07,-27.348,78.942
1290.14,-27.383,79.095
1288.22,-27.418,79.247
1286.29,-27.453,79.401
1284.36,-27.489,79.555
1282.43,-27.524,79.709
1280.5,-27.56,79.864
1278.57,-27.595,80.02
1276.65,-27.631,80.175
1274.72,-27.666,80.331
1272.79,-27.702,80.488
1270.86,-27.738,80.646
1268.93,-27.774,80.804
1267,-27.81,80.963
1265.07,-27.846,81.122
1263.15,-27.882,81.281
1261.22,-27.918,81.441
1259.29,-27.955,81.602
1257.36,-27.991,81.763
1255.43,-28.028,81.925
1253.5,-28.064,82.088
1251.58,-28.101,82.25
1249.65,-28.137,82.413
1247.72,-28.174,82.577
1245.79,-28.211,82.742
1243.86,-28.248,82.907
1241.93,-28.285,83.073
1240,-28.322,83.239
1238.08,-28.359,83.406
1236.15,-28.396,83.573
1234.22,-28.434,83.741
1232.29,-28.471,83.91
1230.36,-28.509,84.079
1228.43,-28.546,84.249
1226.51,-28.584,84.418
1224.58,-28.622,84.589
1222.65,-28.659,84.761
1220.72,-28.697,84.933
1218.79,-28.735,85.106
1216.86,-28.773,85.279
1214.93,-28.811,85.453
1213.01,-28.849,85.627
1211.08,-28.888,85.802
1209.15,-28.926,85.978
1207.22,-28.965,86.155
1205.29,-29.003,86.332
1203.36,-29.042,86.509
1201.44,-29.08,86.687
1199.51,-29.119,86.866
1197.58,-29.158,87.045
1195.65,-29.197,87.225
1193.72,-29.236,87.406
1191.79,-29.275,87.588
1189.86,-29.314,87.77
1187.94,-29.353,87.952
1186.01,-29.393,88.135
1184.08,-29.432,88.319
1182.15,-29.472,88.504
1180.22,-29.511,88.689
1178.29,-29.551,88.875
1176.37,-29.59,89.061
1174.44,-29.63,89.249
1172.51,-29.67,89.437
1170.58,-29.71,89.625
1168.65,-29.75,89.815
1166.72,-29.79,90.005
1164.79,-29.831,90.196
1162.87,-29.871,90.386
1160.94,-29.911,90.579
1159.01,-29.952,90.771
1157.08,-29.992,90.965
1155.15,-30.033,91.159
1153.22,-30.074,91.354
1151.3,-30.114,91.549
1149.37,-30.155,91.746
1147.44,-30.196,91.943
1145.51,-30.238,92.141
1143.58,-30.279,92.339
1141.65,-30.32,92.539
1139.72,-30.361,92.739
1137.8,-30.403,92.939
1135.87,-30.444,93.14
1133.94,-30.486,93.342
1132.01,-30.527,93.545
1130.08,-30.569,93.749
1128.15,-30.611,93.954
1126.23,-30.653,94.158
1124.3,-30.695,94.364
1122.37,-30.737,94.571
1120.44,-30.779,94.779
1118.51,-30.821,94.987
1116.58,-30.864,95.197
1114.65,-30.906,95.407
1112.73,-30.948,95.616
1110.8,-30.991,95.828
1108.87,-31.034,96.04
1106.94,-31.077,96.253
1105.01,-31.119,96.467
1103.08,-31.162,96.682
1101.16,-31.205,96.897
1099.23,-31.248,97.113
1097.3,-31.292,97.331
1095.37,-31.335,97.549
1093.44,-31.378,97.768
1091.51,-31.422,97.987
1089.58,-31.465,98.208
1087.66,-31.509,98.428
1085.73,-31.553,98.651
1083.8,-31.597,98.874
1081.87,-31.64,99.098
1079.94,-31.684,99.323
1078.01,-31.729,99.549
1076.08,-31.773,99.775
1074.16,-31.817,100
1072.23,-31.861,100.23
1070.3,-31.906,100.46
1068.37,-31.95,100.69
1066.44,-31.995,100.92
1064.51,-32.04,101.15
1062.59,-32.084,101.38
1060.66,-32.129,101.62
1058.73,-32.174,101.85
1056.8,-32.219,102.09
1054.87,-32.264,102.33
1052.94,-32.31,102.56
1051.01,-32.355,102.8
1049.09,-32.4,103.04
1047.16,-32.446,103.28
1045.23,-32.491,103.52
1043.3,-32.537,103.76
1041.37,-32.583,104.01
1039.44,-32.629,104.25
1037.52,-32.674,104.5
1035.59,-32.72,104.74
1033.66,-32.766,104.99
1031.73,-32.813,105.24
1029.8,-32.859,105.49
1027.87,-32.905,105.74
1025.94,-32.952,105.99
1024.02,-32.998,106.24
1022.09,-33.045,106.49
1020.16,-33.092,106.75
1018.23,-33.139,107
1016.3,-33.186,107.26
1014.37,-33.233,107.51
1012.45,-33.279,107.77
1010.52,-33.327,108.03
1008.59,-33.374,108.29
1006.66,-33.421,108.55
1004.73,-33.469,108.82
1002.8,-33.517,109.08
1000.87,-33.564,109.34
998.95,-33.612,109.61
997.02,-33.66,109.88
995.09,-33.708,110.14
993.16,-33.756,110.41
991.23,-33.804,110.68
989.3,-33.852,110.96
987.38,-33.9,111.23
985.45,-33.948,111.5
983.52,-33.997,111.78
981.59,-34.045,112.05
979.66,-34.094,112.33
977.73,-34.143,112.61
975.8,-34.192,112.89
973.88,-34.24,113.17
971.95,-34.29,113.45
970.02,-34.339,113.73
968.09,-34.388,114.02
966.16,-34.437,114.3
964.23,-34.487,114.59
962.3,-34.536,114.88
960.38,-34.585,115.16
958.45,-34.635,115.45
956.52,-34.685,115.75
954.59,-34.735,116.04
952.66,-34.785,116.33
950.73,-34.835,116.63
948.81,-34.885,116.92
946.88,-34.935,117.22
944.95,-34.985,117.52
943.02,-35.036,117.82
941.09,-35.086,118.12
939.16,-35.137,118.43
937.23,-35.188,118.73
935.31,-35.238,119.04
933.38,-35.289,119.34
931.45,-35.34,119.65
929.52,-35.391,119.96
927.59,-35.442,120.27
925.66,-35.494,120.59
923.74,-35.545,120.9
921.81,-35.596,121.22
919.88,-35.648,121.53
917.95,-35.699,121.85
916.02,-35.751,122.17
914.09,-35.803,122.49
912.16,-35.855,122.81
910.24,-35.906,123.14
908.31,-35.959,123.46
906.38,-36.011,123.79
904.45,-36.063,124.12
902.52,-36.115,124.45
900.59,-36.168,124.78
898.67,-36.22,125.11
896.74,-36.273,125.44
894.81,-36.326,125.78
892.88,-36.378,126.12
890.95,-36.431,126.46
889.02,-36.484,126.8
887.09,-36.537,127.14
885.17,-36.59,127.48
883.24,-36.644,127.83
881.31,-36.697,128.17
879.38,-36.751,128.52
877.45,-36.804,128.87
875.52,-36.858,129.22
873.6,-36.911,129.57
871.67,-36.965,129.93
869.74,-37.019,130.29
867.81,-37.073,130.64
865.88,-37.127,131
863.95,-37.182,131.36
862.02,-37.236,131.73
860.1,-37.29,132.09
858.17,-37.345,132.46
856.24,-37.399,132.83
854.31,-37.454,133.2
852.38,-37.509,133.57
850.45,-37.564,133.94
848.53,-37.618,134.32
846.6,-37.673,134.69
844.67,-37.729,135.07
842.74,-37.784,135.45
840.81,-37.839,135.84
838.88,-37.895,136.22
836.95,-37.95,136.61
835.03,-38.006,136.99
833.1,-38.061,137.38
831.17,-38.117,137.77
829.24,-38.173,138.17
827.31,-38.229,138.56
825.38,-38.285,138.96
823.46,-38.341,139.36
821.53,-38.397,139.76
819.6,-38.454,140.16
817.67,-38.51,140.57
815.74,-38.567,140.98
813.81,-38.624,141.39
811.88,-38.68,141.8
809.96,-38.737,142.21
808.03,-38.794,142.63
806.1,-38.851,143.04
804.17,-38.908,143.46
802.24,-38.965,143.88
800.31,-39.022,144.31
798.39,-39.08,144.73
796.46,-39.137,145.16
794.53,-39.195,145.59
792.6,-39.252,146.02
790.67,-39.31,146.46
788.74,-39.368,146.9
786.81,-39.426,147.33
784.89,-39.484,147.77
782.96,-39.542,148.22
781.03,-39.6,148.66
779.1,-39.658,149.11
777.17,-39.717,149.56
775.24,-39.775,150.01
773.32,-39.833,150.47
771.39,-39.892,150.93
769.46,-39.951,151.38
767.53,-40.01,151.85
765.6,-40.069,152.31
763.67,-40.128,152.78
761.74,-40.187,153.25
759.82,-40.246,153.72
757.89,-40.305,154.19
755.96,-40.365,154.67
754.03,-40.424,155.15
752.1,-40.484,155.63
750.17,-40.543,156.12
748.25,-40.603,156.6
746.32,-40.663,157.09
744.39,-40.723,157.58
742.46,-40.783,158.08
740.53,-40.843,158.57
738.6,-40.903,159.07
736.67,-40.963,159.58
734.75,-41.023,160.08
732.82,-41.084,160.59
730.89,-41.144,161.1
728.96,-41.205,161.61
727.03,-41.266,162.13
725.1,-41.327,162.65
723.18,-41.387,163.17
721.25,-41.448,163.69
719.32,-41.509,164.22
717.39,-41.571,164.75
715.46,-41.632,165.29
713.53,-41.693,165.82
711.6,-41.755,166.36
709.68,-41.816,166.9
707.75,-41.878,167.45
705.82,-41.939,168
703.89,-42.001,168.55
701.96,-42.063,169.11
700.03,-42.125,169.66
698.11,-42.187,170.22
696.18,-42.249,170.79
694.25,-42.311,171.36
692.32,-42.373,171.93
690.456,-42.433,172.48
690.39,-42.436,172.5
689.905,-42.451,172.65
689.354,-42.469,172.81
688.803,-42.487,172.98
688.46,-42.498,173.08
688.252,-42.505,173.14
687.701,-42.523,173.31
687.15,-42.541,173.47
686.598,-42.558,173.64
686.53,-42.561,173.66
686.047,-42.576,173.8
685.496,-42.594,173.97
684.945,-42.612,174.14
684.61,-42.623,174.24
684.394,-42.63,174.31
683.843,-42.648,174.47
683.292,-42.666,174.64
682.741,-42.684,174.81
682.68,-42.686,174.83
682.19,-42.702,174.98
681.639,-42.719,175.15
681.088,-42.737,175.32
680.75,-42.748,175.42
680.537,-42.755,175.48
679.986,-42.773,175.65
679.435,-42.791,175.82
678.884,-42.809,175.99
678.82,-42.811,176.01
678.333,-42.827,176.16
677.782,-42.845,176.33
677.231,-42.863,176.51
676.89,-42.874,176.61
676.68,-42.881,176.68
676.129,-42.899,176.85
675.578,-42.917,177.02
675.027,-42.935,177.19
674.96,-42.937,177.21
674.476,-42.953,177.36
673.925,-42.971,177.54
673.373,-42.989,177.71
673.03,-43,177.82
672.822,-43.007,177.88
672.271,-43.025,178.06
671.72,-43.043,178.23
671.169,-43.061,178.4
671.11,-43.063,178.42
670.618,-43.079,178.58
670.067,-43.097,178.75
669.516,-43.116,178.93
669.18,-43.127,179.03
668.965,-43.134,179.1
668.414,-43.152,179.28
667.863,-43.17,179.45
667.312,-43.188,179.63
667.25,-43.19,179.65
666.761,-43.206,179.81
666.21,-43.224,179.98
665.659,-43.242,180.16
665.32,-43.253,180.27
665.108,-43.26,180.34
664.557,-43.279,180.51
664.006,-43.297,180.69
663.455,-43.315,180.87
663.39,-43.317,180.89
662.904,-43.333,181.05
662.353,-43.351,181.23
661.802,-43.369,181.41
661.46,-43.381,181.52
661.251,-43.387,181.59
660.7,-43.406,181.77
660.148,-43.424,181.95
659.597,-43.442,182.13
659.54,-43.444,182.14
659.046,-43.46,182.31
658.495,-43.478,182.49
657.944,-43.497,182.67
657.61,-43.508,182.78
657.393,-43.515,182.85
656.842,-43.533,183.03
656.291,-43.551,183.21
655.74,-43.569,183.4
655.68,-43.571,183.42
655.189,-43.588,183.58
654.638,-43.606,183.76
654.087,-43.624,183.95
653.75,-43.635,184.06
653.536,-43.642,184.13
652.985,-43.661,184.31
652.434,-43.679,184.5
651.883,-43.697,184.68
651.82,-43.699,184.7
651.332,-43.716,184.87
650.781,-43.734,185.05
650.23,-43.752,185.24
649.89,-43.763,185.35
649.679,-43.77,185.42
649.128,-43.789,185.61
648.577,-43.807,185.8
648.026,-43.825,185.98
647.96,-43.828,186.01
647.475,-43.844,186.17
646.923,-43.862,186.36
646.372,-43.88,186.55
646.04,-43.891,186.66
645.821,-43.899,186.73
645.27,-43.917,186.92
644.719,-43.935,187.11
644.168,-43.954,187.3
644.11,-43.956,187.32
643.617,-43.972,187.49
643.066,-43.991,187.68
642.515,-44.009,187.87
642.18,-44.02,187.99
641.964,-44.027,188.06
641.413,-44.046,188.25
640.862,-44.064,188.44
640.311,-44.083,188.63
640.25,-44.085,188.66
639.76,-44.101,188.83
639.209,-44.119,189.02
638.658,-44.138,189.21
638.32,-44.149,189.33
638.107,-44.156,189.4
637.556,-44.175,189.6
637.005,-44.193,189.79
636.454,-44.212,189.98
636.39,-44.214,190.01
635.903,-44.23,190.18
635.352,-44.248,190.37
634.801,-44.267,190.57
634.47,-44.278,190.68
634.25,-44.285,190.76
633.698,-44.304,190.96
633.147,-44.322,191.15
632.596,-44.341,191.35
632.54,-44.343,191.37
632.045,-44.359,191.55
631.494,-44.378,191.74
630.943,-44.396,191.94
630.61,-44.407,192.06
630.392,-44.415,192.14
629.841,-44.433,192.34
629.29,-44.452,192.54
628.739,-44.47,192.73
628.68,-44.472,192.76
628.188,-44.489,192.93
627.637,-44.507,193.13
627.086,-44.526,193.33
626.75,-44.537,193.45
626.535,-44.545,193.53
625.984,-44.563,193.73
625.433,-44.582,193.93
624.882,-44.6,194.13
624.82,-44.602,194.16
624.331,-44.619,194.34
623.78,-44.637,194.54
623.229,-44.656,194.74
622.89,-44.667,194.86
622.678,-44.675,194.94
622.127,-44.693,195.15
621.576,-44.712,195.35
621.024,-44.73,195.55
620.97,-44.732,195.57
620.473,-44.749,195.76
619.922,-44.768,195.96
619.371,-44.786,196.17
619.04,-44.797,196.29
618.82,-44.805,196.37
618.269,-44.823,196.58
617.718,-44.842,196.78
617.167,-44.861,196.99
617.11,-44.863,197.01
616.616,-44.879,197.2
616.065,-44.898,197.4
615.514,-44.917,197.61
615.18,-44.928,197.74
614.963,-44.935,197.82
614.412,-44.954,198.03
613.861,-44.973,198.23
613.31,-44.991,198.44
613.25,-44.993,198.47
612.759,-45.01,198.65
612.208,-45.029,198.86
611.657,-45.047,199.07
611.32,-45.059,199.2
611.106,-45.066,199.28
610.555,-45.085,199.49
610.004,-45.104,199.7
609.453,-45.122,199.92
609.4,-45.124,199.94
608.902,-45.141,200.13
608.351,-45.16,200.34
607.799,-45.178,200.55
607.47,-45.19,200.68
607.248,-45.197,200.77
606.697,-45.216,200.98
606.146,-45.235,201.19
605.595,-45.253,201.41
605.54,-45.255,201.43
605.044,-45.272,201.62
604.493,-45.291,201.84
603.942,-45.31,202.05
603.61,-45.321,202.18
603.391,-45.329,202.27
602.84,-45.347,202.49
602.289,-45.366,202.7
601.738,-45.385,202.92
601.68,-45.387,202.94
601.187,-45.404,203.14
600.636,-45.422,203.35
600.085,-45.441,203.57
599.75,-45.453,203.71
599.534,-45.46,203.79
598.983,-45.479,204.01
598.432,-45.498,204.23
597.881,-45.517,204.45
597.82,-45.519,204.47
597.33,-45.535,204.67
596.779,-45.554,204.89
596.228,-45.573,205.11
595.9,-45.584,205.24
595.677,-45.592,205.33
595.126,-45.611,205.56
594.574,-45.63,205.78
594.023,-45.648,206
593.97,-45.65,206.02
593.472,-45.667,206.22
592.921,-45.686,206.45
592.37,-45.705,206.67
592.04,-45.716,206.81
591.819,-45.724,206.9
591.268,-45.743,207.12
590.717,-45.762,207.35
590.166,-45.78,207.57
590.11,-45.782,207.6
589.615,-45.799,207.8
589.064,-45.818,208.03
588.513,-45.837,208.25
588.18,-45.849,208.39
587.962,-45.856,208.48
587.411,-45.875,208.71
586.86,-45.894,208.94
586.309,-45.913,209.17
586.25,-45.915,209.19
585.758,-45.932,209.39
585.207,-45.951,209.62
584.656,-45.97,209.85
584.33,-45.981,209.99
584.105,-45.989,210.08
583.554,-46.007,210.32
583.003,-46.026,210.55
582.452,-46.045,210.78
582.4,-46.047,210.8
581.9,-46.064,211.01
581.349,-46.083,211.24
580.798,-46.102,211.48
580.47,-46.113,211.62
580.247,-46.121,211.71
579.696,-46.14,211.94
579.145,-46.159,212.18
578.594,-46.178,212.41
578.54,-46.18,212.44
578.043,-46.197,212.65
577.492,-46.216,212.89
576.941,-46.235,213.12
576.61,-46.246,213.26
576.39,-46.254,213.36
575.839,-46.273,213.6
575.288,-46.292,213.83
574.737,-46.311,214.07
574.68,-46.313,214.1
574.186,-46.33,214.31
573.635,-46.349,214.55
573.084,-46.368,214.79
572.75,-46.379,214.93
572.533,-46.387,215.03
571.982,-46.406,215.27
571.431,-46.425,215.51
570.88,-46.444,215.75
570.83,-46.446,215.77
570.329,-46.463,215.99
569.778,-46.482,216.24
569.227,-46.501,216.48
568.9,-46.512,216.62
568.675,-46.52,216.72
568.124,-46.539,216.97
567.573,-46.558,217.21
567.022,-46.577,217.45
566.97,-46.579,217.48
566.471,-46.596,217.7
565.92,-46.615,217.94
565.369,-46.634,218.19
565.04,-46.646,218.34
564.818,-46.653,218.44
564.267,-46.673,218.68
563.716,-46.692,218.93
563.165,-46.711,219.18
563.11,-46.713,219.21
562.614,-46.73,219.43
562.063,-46.749,219.68
561.512,-46.768,219.93
561.18,-46.779,220.08
560.961,-46.787,220.18
560.41,-46.806,220.43
559.859,-46.825,220.68
559.308,-46.844,220.93
559.26,-46.846,220.95
558.757,-46.863,221.18
558.206,-46.882,221.44
557.655,-46.901,221.69
557.33,-46.913,221.84
557.104,-46.921,221.94
556.553,-46.94,222.2
556.002,-46.959,222.45
555.45,-46.978,222.71
555.4,-46.98,222.73
554.899,-46.997,222.96
554.348,-47.016,223.22
553.797,-47.035,223.47
553.47,-47.047,223.63
553.246,-47.054,223.73
552.695,-47.073,223.99
552.144,-47.093,224.25
551.593,-47.112,224.51
551.54,-47.114,224.53
551.042,-47.131,224.76
550.491,-47.15,225.02
549.94,-47.169,225.28
549.61,-47.181,225.44
549.389,-47.188,225.54
548.838,-47.207,225.81
548.287,-47.226,226.07
547.736,-47.246,226.33
547.68,-47.248,226.36
547.185,-47.265,226.59
546.634,-47.284,226.86
546.083,-47.303,227.12
545.76,-47.314,227.28
545.532,-47.322,227.38
544.981,-47.341,227.65
544.43,-47.36,227.92
543.879,-47.38,228.18
543.83,-47.381,228.2
543.328,-47.399,228.45
542.777,-47.418,228.72
542.225,-47.437,228.98
541.9,-47.448,229.14
541.674,-47.456,229.25
541.123,-47.475,229.52
540.572,-47.494,229.79
540.021,-47.514,230.06
539.97,-47.515,230.08
539.47,-47.533,230.33
538.919,-47.552,230.6
538.368,-47.571,230.87
538.04,-47.583,231.03
537.817,-47.59,231.14
537.266,-47.609,231.42
536.715,-47.629,231.69
536.164,-47.648,231.96
536.11,-47.65,231.99
535.613,-47.667,232.24
535.062,-47.686,232.51
534.511,-47.705,232.79
534.19,-47.716,232.95
533.96,-47.724,233.06
533.409,-47.744,233.34
532.858,-47.763,233.62
532.307,-47.782,233.9
532.26,-47.784,233.92
531.756,-47.801,234.17
531.205,-47.82,234.45
530.654,-47.839,234.73
530.33,-47.851,234.9
530.103,-47.859,235.01
529.551,-47.878,235.29
529,-47.897,235.58
528.449,-47.916,235.86
528.4,-47.918,235.88
527.898,-47.935,236.14
527.347,-47.954,236.42
526.796,-47.974,236.71
526.47,-47.985,236.87
526.245,-47.993,236.99
525.694,-48.012,237.28
525.143,-48.031,237.56
524.592,-48.05,237.85
524.54,-48.052,237.87
524.041,-48.069,238.13
523.49,-48.089,238.42
522.939,-48.108,238.71
522.61,-48.119,238.88
522.388,-48.127,239
521.837,-48.146,239.29
521.286,-48.165,239.58
520.735,-48.184,239.87
520.69,-48.186,239.89
520.184,-48.204,240.16
519.633,-48.223,240.45
519.082,-48.242,240.74
518.76,-48.253,240.91
518.531,-48.261,241.03
517.98,-48.28,241.33
517.429,-48.299,241.62
516.878,-48.318,241.92
516.83,-48.32,241.94
516.326,-48.338,242.21
515.775,-48.357,242.51
515.224,-48.376,242.8
514.9,-48.387,242.98
514.673,-48.395,243.1
514.122,-48.414,243.4
513.571,-48.433,243.7
513.02,-48.452,244
512.97,-48.454,244.02
512.469,-48.472,244.3
511.918,-48.491,244.6
511.367,-48.51,244.9
511.04,-48.521,245.08
510.816,-48.529,245.2
510.265,-48.548,245.5
509.714,-48.567,245.8
509.163,-48.586,246.11
509.12,-48.588,246.13
508.612,-48.606,246.41
508.061,-48.625,246.72
507.51,-48.644,247.02
507.19,-48.655,247.2
506.959,-48.663,247.33
506.408,-48.682,247.64
505.857,-48.701,247.94
505.306,-48.72,248.25
505.26,-48.722,248.28
504.755,-48.739,248.56
504.204,-48.758,248.87
503.653,-48.777,249.18
503.33,-48.789,249.36
503.101,-48.797,249.49
502.55,-48.816,249.8
501.999,-48.835,250.12
501.448,-48.854,250.43
501.4,-48.856,250.46
500.897,-48.873,250.74
500.346,-48.892,251.06
499.795,-48.911,251.37
499.47,-48.922,251.56
499.244,-48.93,251.69
498.693,-48.949,252.01
498.142,-48.968,252.32
497.591,-48.987,252.64
497.54,-48.989,252.67
497.04,-49.006,252.96
496.489,-49.025,253.28
495.938,-49.044,253.6
495.62,-49.055,253.78
495.387,-49.063,253.92
494.836,-49.082,254.24
494.285,-49.101,254.56
493.734,-49.12,254.89
493.69,-49.122,254.91
493.183,-49.139,255.21
492.632,-49.159,255.53
492.081,-49.178,255.86
491.76,-49.189,256.05
491.53,-49.196,256.19
490.979,-49.215,256.51
490.428,-49.234,256.84
489.876,-49.253,257.17
489.83,-49.255,257.19
489.325,-49.272,257.5
488.774,-49.291,257.83
488.223,-49.31,258.16
487.9,-49.321,258.35
487.672,-49.329,258.49
487.121,-49.348,258.82
486.57,-49.367,259.15
486.019,-49.386,259.48
485.97,-49.388,259.51
485.468,-49.405,259.82
484.917,-49.424,260.15
484.366,-49.443,260.49
484.05,-49.454,260.68
483.815,-49.462,260.82
483.264,-49.481,261.16
482.713,-49.499,261.5
482.162,-49.518,261.84
482.12,-49.52,261.86
481.611,-49.537,262.18
481.06,-49.556,262.52
480.509,-49.575,262.86
480.19,-49.586,263.06
479.958,-49.594,263.2
479.407,-49.613,263.54
478.856,-49.631,263.89
478.305,-49.65,264.23
478.26,-49.652,264.26
477.754,-49.669,264.58
477.203,-49.688,264.92
476.651,-49.707,265.27
476.33,-49.718,265.47
476.1,-49.725,265.61
475.549,-49.744,265.96
474.998,-49.763,266.31
474.447,-49.782,266.66
474.4,-49.783,266.69
473.896,-49.8,267.01
473.345,-49.819,267.36
472.794,-49.838,267.72
472.47,-49.849,267.92
472.243,-49.856,268.07
471.692,-49.875,268.42
471.141,-49.894,268.78
470.59,-49.912,269.13
470.55,-49.914,269.16
470.039,-49.931,269.49
469.488,-49.95,269.85
468.937,-49.968,270.2
468.62,-49.979,270.41
468.386,-49.987,270.56
467.835,-50.006,270.92
467.284,-50.024,271.28
466.733,-50.043,271.64
466.69,-50.044,271.67
466.182,-50.061,272.01
465.631,-50.08,272.37
465.08,-50.098,272.73
464.76,-50.109,272.94
464.529,-50.117,273.1
463.977,-50.135,273.46
463.426,-50.154,273.83
462.875,-50.172,274.2
462.83,-50.174,274.23
462.324,-50.191,274.57
461.773,-50.209,274.93
461.222,-50.228,275.31
460.9,-50.238,275.52
460.671,-50.246,275.68
460.12,-50.264,276.05
459.569,-50.283,276.42
459.018,-50.301,276.79
458.98,-50.302,276.82
458.467,-50.319,277.17
457.916,-50.338,277.54
457.365,-50.356,277.92
457.05,-50.366,278.14
456.814,-50.374,278.3
456.263,-50.393,278.68
455.712,-50.411,279.05
455.161,-50.429,279.43
455.12,-50.43,279.46
454.61,-50.447,279.82
454.059,-50.465,280.2
453.508,-50.484,280.58
453.19,-50.494,280.8
452.957,-50.502,280.96
452.406,-50.52,281.35
451.855,-50.538,281.73
451.304,-50.556,282.12
451.26,-50.557,282.15
450.752,-50.574,282.51
450.201,-50.592,282.9
449.65,-50.61,283.28
449.33,-50.621,283.51
449.099,-50.628,283.67
448.548,-50.646,284.07
447.997,-50.664,284.46
447.446,-50.682,284.85
447.4,-50.683,284.88
446.895,-50.7,285.25
446.344,-50.718,285.64
445.793,-50.735,286.04
445.48,-50.745,286.26
445.242,-50.753,286.43
444.691,-50.771,286.83
444.14,-50.789,287.23
443.589,-50.806,287.63
443.55,-50.808,287.66
443.038,-50.824,288.03
442.487,-50.842,288.43
441.936,-50.859,288.84
441.62,-50.869,289.07
441.385,-50.877,289.24
440.834,-50.894,289.64
440.283,-50.912,290.05
439.732,-50.929,290.46
439.69,-50.931,290.49
439.181,-50.947,290.87
438.63,-50.964,291.27
438.078,-50.982,291.68
437.76,-50.992,291.92
437.527,-50.999,292.1
436.976,-51.016,292.51
436.425,-51.033,292.92
435.874,-51.051,293.34
435.83,-51.052,293.37
435.323,-51.068,293.75
434.772,-51.085,294.17
434.221,-51.102,294.58
433.91,-51.111,294.82
433.67,-51.119,295
433.119,-51.136,295.42
432.568,-51.152,295.84
432.017,-51.169,296.26
431.98,-51.17,296.29
431.466,-51.186,296.69
430.915,-51.202,297.11
430.364,-51.219,297.53
430.05,-51.228,297.78
429.813,-51.235,297.96
429.262,-51.252,298.39
428.711,-51.268,298.82
428.16,-51.285,299.24
428.12,-51.286,299.27
427.609,-51.301,299.67
427.058,-51.317,300.1
426.507,-51.333,300.54
426.19,-51.343,300.79
425.956,-51.349,300.97
425.405,-51.366,301.4
424.853,-51.382,301.84
424.302,-51.398,302.28
424.26,-51.399,302.31
423.751,-51.414,302.71
423.2,-51.43,303.15
422.649,-51.445,303.59
422.33,-51.455,303.85
422.098,-51.461,304.03
421.547,-51.477,304.47
420.996,-51.493,304.92
420.445,-51.509,305.36
420.41,-51.51,305.39
419.894,-51.524,305.81
419.343,-51.54,306.25
418.792,-51.556,306.7
418.48,-51.565,306.95
418.241,-51.571,307.15
417.69,-51.587,307.6
417.139,-51.603,308.05
416.588,-51.618,308.5
416.55,-51.619,308.53
416.037,-51.634,308.95
415.486,-51.649,309.41
414.935,-51.664,309.86
414.62,-51.673,310.13
414.384,-51.68,310.32
413.833,-51.695,310.78
413.282,-51.71,311.24
412.731,-51.726,311.7
412.69,-51.727,311.73
412.18,-51.741,312.16
411.628,-51.756,312.62
411.077,-51.771,313.09
410.76,-51.78,313.35
410.526,-51.787,313.55
409.975,-51.802,314.02
409.424,-51.817,314.48
408.873,-51.832,314.95
408.84,-51.833,314.98
408.322,-51.847,315.42
407.771,-51.862,315.89
407.22,-51.877,316.37
406.91,-51.885,316.63
406.669,-51.892,316.84
406.118,-51.907,317.31
405.567,-51.922,317.79
405.016,-51.936,318.27
404.98,-51.937,318.3
404.465,-51.951,318.75
403.914,-51.966,319.23
403.363,-51.981,319.71
403.05,-51.989,319.98
402.812,-51.996,320.19
402.261,-52.01,320.67
401.71,-52.025,321.16
401.159,-52.04,321.64
401.12,-52.041,321.68
400.608,-52.054,322.13
400.057,-52.069,322.62
399.506,-52.084,323.11
398.954,-52.098,323.6
398.403,-52.113,324.09
397.852,-52.127,324.59
397.301,-52.142,325.08
396.75,-52.156,325.58
396.199,-52.17,326.08
395.648,-52.185,326.58
395.097,-52.199,327.08
394.546,-52.214,327.58
393.995,-52.228,328.08
393.444,-52.242,328.59
392.893,-52.256,329.09
392.342,-52.271,329.6
391.791,-52.285,330.11
391.24,-52.299,330.62
390.689,-52.313,331.13
390.138,-52.327,331.64
389.587,-52.341,332.16
389.036,-52.356,332.67
388.485,-52.37,333.19
387.934,-52.384,333.71
387.383,-52.398,334.23
386.832,-52.412,334.75
386.281,-52.426,335.27
385.729,-52.439,335.8
385.178,-52.453,336.32
384.627,-52.467,336.85
384.076,-52.481,337.38
383.525,-52.495,337.91
382.974,-52.509,338.44
382.423,-52.523,338.97
381.872,-52.536,339.51
381.321,-52.55,340.04
380.77,-52.564,340.58
380.219,-52.577,341.12
379.668,-52.591,341.66
379.117,-52.605,342.2
378.566,-52.618,342.75
378.015,-52.632,343.29
377.464,-52.645,343.84
376.913,-52.659,344.39
376.362,-52.673,344.93
375.811,-52.686,345.49
375.26,-52.699,346.04
374.709,-52.713,346.59
374.158,-52.726,347.15
373.607,-52.74,347.71
373.056,-52.753,348.27
372.504,-52.766,348.83
371.953,-52.78,349.39
371.402,-52.793,349.95
370.851,-52.806,350.52
370.3,-52.82,351.09
369.749,-52.833,351.65
369.198,-52.846,352.23
368.647,-52.859,352.8
368.096,-52.872,353.37
367.545,-52.886,353.95
366.994,-52.899,354.52
366.443,-52.912,355.1
365.892,-52.925,355.68
365.341,-52.938,356.27
364.79,-52.951,356.85
364.239,-52.964,357.43
363.688,-52.977,358.02
363.137,-52.99,358.61
362.586,-53.003,359.2
362.035,-53.016,359.79
361.484,-53.029,360.39
360.933,-53.042,360.98
360.382,-53.054,361.58
359.831,-53.067,362.18
359.279,-53.08,362.78
358.728,-53.093,363.39
358.177,-53.106,363.99
357.626,-53.118,364.6
357.075,-53.131,365.21
356.524,-53.144,365.82
355.973,-53.156,366.43
355.422,-53.169,367.04
354.871,-53.182,367.66
354.32,-53.194,368.28
353.769,-53.207,368.9
353.218,-53.219,369.52
352.667,-53.232,370.14
352.116,-53.245,370.77
351.565,-53.257,371.39
351.014,-53.269,372.02
350.463,-53.282,372.65
349.912,-53.294,373.29
349.361,-53.307,373.92
348.81,-53.319,374.56
348.259,-53.332,375.2
347.708,-53.344,375.84
347.157,-53.356,376.48
346.606,-53.369,377.13
346.054,-53.381,377.77
345.503,-53.393,378.42
344.952,-53.405,379.07
344.401,-53.418,379.72
343.85,-53.43,380.38
343.299,-53.442,381.04
342.748,-53.454,381.69
342.197,-53.466,382.35
341.646,-53.478,383.02
341.095,-53.49,383.68
340.544,-53.502,384.35
339.993,-53.514,385.02
339.442,-53.527,385.69
338.891,-53.539,386.36
338.34,-53.551,387.04
337.789,-53.562,387.72
337.238,-53.574,388.4
336.687,-53.586,389.08
336.136,-53.598,389.76
335.585,-53.61,390.45
335.034,-53.622,391.14
334.483,-53.634,391.83
333.932,-53.646,392.52
333.38,-53.657,393.22
332.829,-53.669,393.91
332.278,-53.681,394.61
331.727,-53.693,395.32
331.176,-53.704,396.02
330.625,-53.716,396.73
330.074,-53.728,397.43
329.523,-53.739,398.15
328.972,-53.751,398.86
328.421,-53.763,399.57
327.87,-53.774,400.29
327.319,-53.786,401.01
326.768,-53.797,401.74
326.217,-53.809,402.46
325.666,-53.82,403.19
325.115,-53.832,403.92
324.564,-53.843,404.65
324.013,-53.855,405.39
323.462,-53.866,406.12
322.911,-53.878,406.86
322.36,-53.889,407.6
321.809,-53.9,408.35
321.258,-53.912,409.1
320.707,-53.923,409.85
320.155,-53.934,410.6
319.604,-53.946,411.35
319.053,-53.957,412.11
318.502,-53.968,412.87
317.951,-53.979,413.63
317.4,-53.99,414.4
316.849,-54.002,415.16
316.298,-54.013,415.93
315.747,-54.024,416.71
315.196,-54.035,417.48
314.645,-54.046,418.26
314.094,-54.057,419.04
313.543,-54.068,419.82
312.992,-54.079,420.61
312.441,-54.09,421.4
311.89,-54.101,422.19
311.339,-54.112,422.98
310.788,-54.123,423.78
310.237,-54.134,424.58
309.686,-54.145,425.38
309.135,-54.156,426.19
308.584,-54.167,426.99
308.033,-54.178,427.81
307.482,-54.189,428.62
306.93,-54.199,429.44
306.379,-54.21,430.25
305.828,-54.221,431.08
305.277,-54.232,431.9
304.726,-54.242,432.73
304.175,-54.253,433.56
303.624,-54.264,434.39
303.073,-54.274,435.23
302.522,-54.285,436.07
301.971,-54.296,436.91
301.42,-54.306,437.76
300.869,-54.317,438.61
300.318,-54.327,439.46
299.767,-54.338,440.31
299.216,-54.349,441.17
298.665,-54.359,442.03
298.114,-54.37,442.9
297.563,-54.38,443.76
297.012,-54.391,444.64
296.461,-54.401,445.51
295.91,-54.411,446.39
295.359,-54.422,447.27
294.808,-54.432,448.15
294.256,-54.442,449.03
293.705,-54.453,449.92
293.154,-54.463,450.82
292.603,-54.473,451.71
292.052,-54.484,452.61
291.501,-54.494,453.52
290.95,-54.504,454.42
290.399,-54.514,455.33
289.848,-54.525,456.24
289.297,-54.535,457.16
288.746,-54.545,458.08
288.195,-54.555,459
287.644,-54.565,459.93
287.093,-54.575,460.86
286.542,-54.585,461.79
285.991,-54.595,462.73
285.44,-54.605,463.67
284.889,-54.615,464.62
284.338,-54.625,465.56
283.787,-54.635,466.51
283.236,-54.645,467.47
282.685,-54.655,468.43
282.134,-54.665,469.39
281.583,-54.675,470.36
281.031,-54.685,471.33
280.48,-54.695,472.3
279.929,-54.705,473.28
279.378,-54.714,474.26
278.827,-54.724,475.24
278.276,-54.734,476.23
277.725,-54.744,477.22
277.174,-54.754,478.22
276.623,-54.763,479.22
276.072,-54.773,480.22
275.521,-54.783,481.23
274.97,-54.792,482.24
274.419,-54.802,483.26
273.868,-54.812,484.28
273.317,-54.821,485.3
272.766,-54.831,486.33
272.215,-54.84,487.36
271.664,-54.85,488.4
271.113,-54.859,489.44
270.562,-54.869,490.48
270.011,-54.878,491.53
269.46,-54.888,492.58
268.909,-54.897,493.64
268.358,-54.907,494.7
267.806,-54.916,495.77
267.255,-54.925,496.84
266.704,-54.935,497.91
266.153,-54.944,498.99
265.602,-54.954,500.07
265.051,-54.963,501.16
264.5,-54.972,502.25
263.949,-54.981,503.35
263.398,-54.991,504.45
262.847,-55,505.55
262.296,-55.009,506.66
261.745,-55.018,507.78
261.194,-55.027,508.9
260.643,-55.037,510.02
260.092,-55.046,511.15
259.541,-55.055,512.28
258.99,-55.064,513.42
258.439,-55.073,514.56
257.888,-55.082,515.71
257.337,-55.091,516.86
256.786,-55.1,518.02
256.235,-55.109,519.18
255.684,-55.118,520.35
255.133,-55.127,521.52
254.581,-55.136,522.69
254.03,-55.145,523.88
253.479,-55.154,525.06
252.928,-55.163,526.25
252.377,-55.172,527.45
251.826,-55.18,528.65
251.275,-55.189,529.86
250.724,-55.198,531.07
250.173,-55.207,532.29
249.622,-55.216,533.51
249.071,-55.224,534.74
248.52,-55.233,535.98
247.969,-55.242,537.21
247.418,-55.25,538.46
246.867,-55.259,539.71
246.316,-55.268,540.96
245.765,-55.276,542.22
245.214,-55.285,543.49
244.663,-55.294,544.76
244.112,-55.302,546.04
243.561,-55.311,547.32
243.01,-55.319,548.61
242.459,-55.328,549.91
241.907,-55.336,551.21
241.356,-55.345,552.52
240.805,-55.353,553.83
240.254,-55.362,555.15
239.703,-55.37,556.47
239.152,-55.378,557.8
238.601,-55.387,559.14
238.05,-55.395,560.48
237.499,-55.403,561.83
236.948,-55.412,563.18
236.397,-55.42,564.54
235.846,-55.428,565.91
235.295,-55.437,567.28
234.744,-55.445,568.66
234.193,-55.453,570.05
233.642,-55.461,571.44
233.091,-55.469,572.84
232.54,-55.478,574.25
231.989,-55.486,575.66
231.438,-55.494,577.08
230.887,-55.502,578.5
230.336,-55.51,579.94
229.785,-55.518,581.37
229.234,-55.526,582.82
228.682,-55.534,584.27
228.131,-55.542,585.73
227.58,-55.55,587.2
227.029,-55.558,588.67
226.478,-55.566,590.15
225.927,-55.574,591.64
225.376,-55.582,593.13
224.825,-55.59,594.64
224.274,-55.598,596.15
223.723,-55.606,597.66
223.172,-55.613,599.19
222.621,-55.621,600.72
222.07,-55.629,602.26
221.519,-55.637,603.8
220.968,-55.645,605.36
220.417,-55.652,606.92
219.866,-55.66,608.49
219.315,-55.668,610.07
218.764,-55.675,611.65
218.213,-55.683,613.24
217.662,-55.691,614.84
217.111,-55.698,616.45
216.56,-55.706,618.07
216.009,-55.714,619.7
215.457,-55.721,621.33
214.906,-55.729,622.97
214.355,-55.736,624.62
213.804,-55.744,626.28
213.253,-55.751,627.95
212.702,-55.759,629.62
212.151,-55.766,631.3
211.6,-55.774,633
211.049,-55.781,634.7
210.498,-55.788,636.41
209.947,-55.796,638.13
209.396,-55.803,639.85
208.845,-55.81,641.59
208.294,-55.818,643.34
207.743,-55.825,645.09
207.192,-55.832,646.86
206.641,-55.84,648.63
206.09,-55.847,650.41
205.539,-55.854,652.2
204.988,-55.861,654.01
204.437,-55.868,655.82
203.886,-55.876,657.64
203.335,-55.883,659.47
202.783,-55.89,661.31
202.232,-55.897,663.16
201.681,-55.904,665.02
201.13,-55.911,666.89
200.579,-55.918,668.77
200.028,-55.925,670.66
199.477,-55.932,672.56
198.926,-55.939,674.48
198.375,-55.946,676.4
197.824,-55.953,678.33
197.273,-55.96,680.27
196.722,-55.967,682.23
196.171,-55.974,684.19
195.62,-55.981,686.17
195.069,-55.988,688.16
194.518,-55.994,690.15
193.967,-56.001,692.16
193.416,-56.008,694.18
192.865,-56.015,696.22
192.314,-56.022,698.26
191.763,-56.028,700.32
191.212,-56.035,702.38
190.661,-56.042,704.46
190.11,-56.048,706.55
189.558,-56.055,708.65
189.007,-56.062,710.77
188.456,-56.068,712.9
187.905,-56.075,715.04
187.354,-56.081,717.19
186.803,-56.088,719.35
186.252,-56.095,721.53
185.701,-56.101,723.72
185.15,-56.108,725.92
184.599,-56.114,728.14
184.048,-56.121,730.37
183.497,-56.127,732.61
182.946,-56.133,734.86
182.395,-56.14,737.13
181.844,-56.146,739.42
181.293,-56.153,741.71
180.742,-56.159,744.02
180.191,-56.165,746.35
179.64,-56.172,748.68
179.089,-56.178,751.04
178.538,-56.184,753.4
177.987,-56.19,755.78
177.436,-56.197,758.18
176.885,-56.203,760.59
176.333,-56.209,763.02
175.782,-56.215,765.46
175.231,-56.221,767.91
174.68,-56.228,770.39
174.129,-56.234,772.87
173.578,-56.24,775.37
173.027,-56.246,777.89
172.476,-56.252,780.43
171.925,-56.258,782.98
171.374,-56.264,785.54
170.823,-56.27,788.13
170.272,-56.276,790.73
169.721,-56.282,793.34
169.17,-56.288,795.98
168.619,-56.294,798.63
168.068,-56.3,801.29
167.517,-56.306,803.98
166.966,-56.312,806.68
166.415,-56.317,809.4
165.864,-56.323,812.14
165.313,-56.329,814.9
164.762,-56.335,817.67
164.211,-56.341,820.46
163.66,-56.346,823.27
163.108,-56.352,826.1
162.557,-56.358,828.95
162.006,-56.364,831.82
161.455,-56.369,834.71
160.904,-56.375,837.62
160.353,-56.381,840.55
159.802,-56.386,843.49
159.251,-56.392,846.46
158.7,-56.397,849.45
158.149,-56.403,852.46
157.598,-56.408,855.49
157.047,-56.414,858.54
156.496,-56.419,861.61
155.945,-56.425,864.7
155.394,-56.43,867.82
154.843,-56.436,870.96
154.292,-56.441,874.12
153.741,-56.447,877.3
153.19,-56.452,880.5
152.639,-56.457,883.73
152.088,-56.463,886.98
151.537,-56.468,890.26
150.986,-56.473,893.56
150.435,-56.479,896.88
149.883,-56.484,900.22
149.332,-56.489,903.6
148.781,-56.495,906.99
148.23,-56.5,910.41
147.679,-56.505,913.86
147.128,-56.51,917.33
146.577,-56.515,920.83
146.026,-56.52,924.35
145.475,-56.526,927.9
144.924,-56.531,931.48
144.373,-56.536,935.09
143.822,-56.541,938.72
143.271,-56.546,942.38
142.72,-56.551,946.06
142.169,-56.556,949.78
141.618,-56.561,953.53
141.067,-56.566,957.3
140.516,-56.571,961.1
139.965,-56.576,964.94
139.414,-56.581,968.8
138.863,-56.585,972.69
138.312,-56.59,976.62
137.761,-56.595,980.57
137.209,-56.6,984.56
136.658,-56.605,988.58
136.107,-56.61,992.63
135.556,-56.614,996.72
135.005,-56.619,1000.8
134.454,-56.624,1005
133.903,-56.629,1009.2
133.352,-56.633,1013.4
132.801,-56.638,1017.6
132.25,-56.643,1021.9
131.699,-56.647,1026.3
131.148,-56.652,1030.6
130.597,-56.657,1035
130.046,-56.661,1039.5
129.495,-56.666,1043.9
128.944,-56.67,1048.4
128.393,-56.675,1053
127.842,-56.679,1057.6
127.291,-56.684,1062.2
126.74,-56.688,1066.9
126.189,-56.693,1071.6
125.638,-56.697,1076.3
125.087,-56.701,1081.1
124.536,-56.706,1086
123.984,-56.71,1090.8
123.433,-56.715,1095.7
122.882,-56.719,1100.7
122.331,-56.723,1105.7
121.78,-56.728,1110.8
121.229,-56.732,1115.9
120.678,-56.736,1121
120.127,-56.74,1126.2
119.576,-56.744,1131.4
119.025,-56.749,1136.7
118.474,-56.753,1142.1
117.923,-56.757,1147.5
117.372,-56.761,1152.9
116.821,-56.765,1158.4
116.27,-56.769,1163.9
115.719,-56.773,1169.5
115.168,-56.778,1175.2
114.617,-56.782,1180.9
114.066,-56.786,1186.6
113.515,-56.79,1192.4
112.964,-56.794,1198.3
112.413,-56.798,1204.2
111.862,-56.801,1210.2
111.311,-56.805,1216.2
110.759,-56.809,1222.3
110.208,-56.813,1228.5
109.657,-56.817,1234.7
109.106,-56.821,1241
108.555,-56.825,1247.3
108.004,-56.829,1253.8
107.453,-56.832,1260.2
106.902,-56.836,1266.8
106.351,-56.84,1273.4
105.8,-56.844,1280.1
105.249,-56.847,1286.8
104.698,-56.851,1293.7
104.147,-56.855,1300.6
103.596,-56.858,1307.5
103.045,-56.862,1314.6
102.494,-56.866,1321.7
101.943,-56.869,1328.9
101.392,-56.873,1336.1
100.841,-56.876,1343.5
100.29,-56.88,1350.9
99.7386,-56.883,1358.4
99.1876,-56.887,1366
98.6365,-56.89,1373.7
98.0855,-56.894,1381.5
97.5345,-56.897,1389.3
96.9834,-56.901,1397.3
96.4324,-56.904,1405.3
95.8813,-56.907,1413.4
95.3303,-56.911,1421.7
94.7793,-56.914,1430
94.2282,-56.917,1438.4
93.6772,-56.921,1446.9
93.1261,-56.924,1455.5
92.5751,-56.927,1464.2
92.024,-56.931,1473
91.473,-56.934,1482
90.922,-56.937,1491
90.3709,-56.94,1500.1
89.8199,-56.943,1509.4
89.2688,-56.947,1518.8
88.7178,-56.95,1528.2
88.1667,-56.953,1537.8
87.6157,-56.956,1547.6
87.0647,-56.959,1557.4
86.5136,-56.962,1567.4
85.9626,-56.965,1577.5
85.4115,-56.968,1587.7
84.8605,-56.971,1598.1
84.3095,-56.974,1608.6
83.7584,-56.977,1619.2
83.2074,-56.98,1630
82.6563,-56.983,1640.9
82.1053,-56.986,1651.9
81.5542,-56.989,1663.2
81.0032,-56.992,1674.5
80.4521,-56.994,1686
79.9011,-56.997,1697.7
79.3501,-57,1709.6
78.799,-57.003,1721.6
78.248,-57.006,1733.7
77.6969,-57.008,1746.1
77.1459,-57.011,1758.6
76.5949,-57.014,1771.3
76.0438,-57.016,1784.2
75.4928,-57.019,1797.3
74.9417,-57.022,1810.5
74.3907,-57.024,1824
73.8396,-57.027,1837.6
73.2886,-57.03,1851.5
72.7376,-57.032,1865.6
72.1865,-57.035,1879.9
71.6355,-57.037,1894.4
71.0844,-57.04,1909.1
70.5334,-57.042,1924.1
69.9823,-57.045,1939.3
69.4313,-57.047,1954.7
68.8803,-57.05,1970.4
68.3292,-57.052,1986.4
67.7782,-57.054,2002.6
67.2271,-57.057,2019
66.6761,-57.059,2035.8
66.1251,-57.061,2052.8
65.574,-57.064,2070.1
65.023,-57.066,2087.7
64.4719,-57.068,2105.6
63.9209,-57.071,2123.8
63.3699,-57.073,2142.3
62.8188,-57.075,2161.1
62.2678,-57.077,2180.3
61.7167,-57.079,2199.8
61.1657,-57.082,2219.7
60.6146,-57.084,2239.9
60.0636,-57.086,2260.5
59.5125,-57.088,2281.5
58.9615,-57.09,2302.9
58.4105,-57.092,2324.6
57.8594,-57.094,2346.8
57.3084,-57.096,2369.4
56.7573,-57.098,2392.5
56.2063,-57.1,2416
55.6553,-57.102,2440
55.1042,-57.104,2464.4
54.5532,-57.106,2489.4
54.0021,-57.108,2514.8
53.4511,-57.11,2540.8
52.9,-57.112,2567.3
52.349,-57.114,2594.4
51.798,-57.115,2622
51.2469,-57.117,2650.3
50.6959,-57.119,2679.1
50.1448,-57.121,2708.6
49.5938,-57.123,2738.8
49.0427,-57.124,2769.6
48.4917,-57.126,2801.1
47.9407,-57.128,2833.4
47.3896,-57.129,2866.4
46.8386,-57.131,2900.1
46.2875,-57.133,2934.7
45.7365,-57.134,2970.1
45.1855,-57.136,3006.4
44.6344,-57.138,3043.5
44.0834,-57.139,3081.6
43.5323,-57.141,3120.7
42.9813,-57.142,3160.8
42.4302,-57.144,3201.9
41.8792,-57.145,3244
41.3282,-57.147,3287.3
40.7771,-57.148,3331.8
40.2261,-57.149,3377.5
39.675,-57.151,3424.5
39.124,-57.152,3472.8
38.573,-57.154,3522.4
38.0219,-57.155,3573.5
37.4709,-57.156,3626.1
36.9198,-57.158,3680.3
36.3688,-57.159,3736.1
